#      year    tas (K) 
 1601  286.742 
 1602    286.8 
 1603  286.785 
 1604  286.883 
 1605  286.752 
 1606  286.643 
 1607  286.868 
 1608   286.79 
 1609  286.648 
 1610  286.689 
 1611   286.72 
 1612  286.686 
 1613  286.895 
 1614  286.982 
 1615  286.851 
 1616  286.762 
 1617  286.749 
 1618  286.749 
 1619  286.721 
 1620  286.696 
 1621  286.785 
 1622  286.686 
 1623   286.62 
 1624  286.596 
 1625  286.598 
 1626  286.567 
 1627  286.605 
 1628  286.699 
 1629  286.786 
 1630  286.918 
 1631  286.852 
 1632  286.881 
 1633   286.89 
 1634  286.844 
 1635  286.867 
 1636  286.748 
 1637   286.75 
 1638  286.932 
 1639  286.863 
 1640  286.753 
 1641  286.772 
 1642  286.795 
 1643   286.74 
 1644  286.811 
 1645  286.837 
 1646  286.806 
 1647  286.735 
 1648  286.832 
 1649  286.874 
 1650   286.78 
 1651  286.753 
 1652  286.776 
 1653  286.893 
 1654  286.872 
 1655  286.669 
 1656  286.729 
 1657  286.816 
 1658  286.779 
 1659  286.812 
 1660  286.875 
 1661  286.791 
 1662  286.737 
 1663  286.764 
 1664  286.718 
 1665  286.729 
 1666  286.716 
 1667   286.54 
 1668  286.776 
 1669  286.702 
 1670  286.858 
 1671  286.827 
 1672  286.815 
 1673  286.573 
 1674  286.635 
 1675  286.736 
 1676  286.762 
 1677  286.742 
 1678  286.698 
 1679  286.605 
 1680  286.602 
 1681  286.627 
 1682  286.663 
 1683  286.579 
 1684  286.605 
 1685  286.592 
 1686  286.616 
 1687  286.613 
 1688  286.686 
 1689  286.642 
 1690  286.644 
 1691  286.607 
 1692  286.607 
 1693  286.723 
 1694  286.712 
 1695  286.805 
 1696   286.83 
 1697  286.686 
 1698  286.699 
 1699  286.673 
 1700  286.736 
 1701  286.648 
 1702  286.656 
 1703  286.674 
 1704  286.669 
 1705  286.694 
 1706  286.748 
 1707  286.723 
 1708  286.689 
 1709   286.75 
 1710  286.689 
 1711  286.646 
 1712  286.728 
 1713  286.609 
 1714  286.825 
 1715  286.662 
 1716  286.707 
 1717  286.619 
 1718  286.658 
 1719  286.542 
 1720  286.669 
 1721  286.705 
 1722  286.567 
 1723  286.589 
 1724  286.565 
 1725  286.592 
 1726  286.752 
 1727  286.697 
 1728  286.706 
 1729   286.61 
 1730  286.607 
 1731  286.577 
 1732  286.786 
 1733  286.699 
 1734  286.666 
 1735  286.579 
 1736  286.591 
 1737  286.613 
 1738  286.627 
 1739  286.655 
 1740  286.725 
 1741  286.803 
 1742  286.878 
 1743   286.93 
 1744  286.884 
 1745  286.753 
 1746  286.579 
 1747  286.642 
 1748  286.656 
 1749  286.785 
 1750  286.712 
 1751  286.761 
 1752  286.792 
 1753  286.796 
 1754   286.81 
 1755  286.878 
 1756  286.861 
 1757  286.809 
 1758  286.877 
 1759  286.711 
 1760  286.798 
 1761  286.837 
 1762  286.821 
 1763  286.851 
 1764  286.729 
 1765  286.758 
 1766   286.65 
 1767  286.733 
 1768  286.769 
 1769  286.774 
 1770  286.829 
 1771  286.726 
 1772  286.697 
 1773  286.789 
 1774  286.708 
 1775  286.737 
 1776  286.689 
 1777  286.673 
 1778  286.753 
 1779  286.731 
 1780  286.763 
 1781  286.684 
 1782  286.723 
 1783  286.774 
 1784  286.766 
 1785  286.978 
 1786  286.938 
 1787  286.854 
 1788  286.778 
 1789  286.879 
 1790  286.787 
 1791  286.667 
 1792  286.707 
 1793   286.85 
 1794  286.884 
 1795  286.852 
 1796   286.72 
 1797  286.748 
 1798  286.755 
 1799    286.7 
 1800  286.682 
 1801  286.597 
 1802  286.736 
 1803  286.795 
 1804  286.722 
 1805  286.813 
 1806  286.687 
 1807  286.653 
 1808  286.708 
 1809  286.767 
 1810  287.037 
 1811  286.834 
 1812  286.908 
 1813  286.781 
 1814  286.806 
 1815  286.831 
 1816  286.799 
 1817  286.788 
 1818  286.797 
 1819  286.803 
 1820  286.863 
 1821  286.771 
 1822  286.773 
 1823  286.669 
 1824  286.711 
 1825  286.801 
 1826  286.847 
 1827  286.771 
 1828  286.795 
 1829  286.705 
 1830  286.785 
 1831  286.846 
 1832  286.847 
 1833  286.751 
 1834  286.773 
 1835  286.782 
 1836    286.8 
 1837  286.917 
 1838   286.82 
 1839   286.78 
 1840  286.787 
 1841  286.764 
 1842   286.86 
 1843  286.718 
 1844  286.731 
 1845  286.612 
 1846  286.637 
 1847  286.804 
 1848  286.744 
 1849  286.789 
 1850  286.906 
 1851  286.983 
 1852  286.848 
 1853  286.761 
 1854  286.763 
 1855  286.776 
 1856  286.762 
 1857  286.616 
 1858   286.64 
 1859  286.685 
 1860  286.721 
 1861  286.829 
 1862  286.758 
 1863  286.686 
 1864  286.734 
 1865  286.891 
 1866  286.802 
 1867   286.78 
 1868  286.809 
 1869  286.894 
 1870  286.835 
 1871  286.633 
 1872  286.559 
 1873  286.649 
 1874   286.69 
 1875  286.605 
 1876  286.429 
 1877   286.43 
 1878  286.455 
 1879  286.489 
 1880  286.406 
 1881  286.452 
 1882  286.529 
 1883  286.442 
 1884  286.565 
 1885  286.468 
 1886  286.449 
 1887  286.387 
 1888  286.351 
 1889  286.556 
 1890  286.589 
 1891  286.555 
 1892   286.46 
 1893   286.55 
 1894  286.526 
 1895  286.652 
 1896  286.616 
 1897  286.655 
 1898  286.712 
 1899  286.846 
 1900  286.879 
 1901  286.632 
 1902  286.696 
 1903  286.616 
 1904  286.653 
 1905  286.567 
 1906  286.707 
 1907  286.712 
 1908  286.807 
 1909    286.8 
 1910  286.721 
 1911  286.566 
 1912  286.814 
 1913  286.827 
 1914   286.89 
 1915  286.869 
 1916  286.936 
 1917  286.876 
 1918  286.909 
 1919  286.824 
 1920  286.856 
 1921  286.953 
 1922  286.844 
 1923  286.833 
 1924  286.738 
 1925  286.736 
 1926   286.66 
 1927  286.681 
 1928  286.775 
 1929  286.729 
 1930  286.597 
 1931  286.655 
 1932   286.67 
 1933  286.559 
 1934  286.633 
 1935  286.726 
 1936  286.797 
 1937  286.738 
 1938  286.661 
 1939  286.664 
 1940  286.742 
 1941  286.758 
 1942  286.662 
 1943  286.732 
 1944  286.703 
 1945  286.718 
 1946  286.659 
 1947  286.717 
 1948  286.725 
 1949    286.7 
 1950  286.724 
 1951  286.708 
 1952  286.628 
 1953  286.686 
 1954  286.855 
 1955  286.739 
 1956  286.506 
 1957  286.559 
 1958  286.706 
 1959  286.683 
 1960  286.825 
 1961  286.906 
 1962  286.769 
 1963  286.694 
 1964  286.774 
 1965  286.749 
 1966  286.616 
 1967  286.686 
 1968  286.801 
 1969  286.715 
 1970  286.808 
 1971   286.73 
 1972  286.737 
 1973  286.848 
 1974  286.834 
 1975  286.787 
 1976  286.575 
 1977   286.76 
 1978  286.822 
 1979  286.675 
 1980  286.563 
 1981  286.647 
 1982  286.813 
 1983  286.831 
 1984  286.782 
 1985  286.853 
 1986   286.79 
 1987  286.642 
 1988  286.649 
 1989  286.796 
 1990  286.853 
 1991  286.755 
 1992  286.694 
 1993  286.834 
 1994   286.86 
 1995  286.872 
 1996  286.788 
 1997  286.818 
 1998  286.789 
 1999   286.73 
 2000  286.873 
 2001  286.802 
 2002  286.885 
 2003  286.712 
 2004  286.624 
 2005  286.542 
 2006  286.533 
 2007  286.615 
 2008  286.651 
 2009  286.817 
 2010  286.822 
 2011  286.754 
 2012  286.752 
 2013  286.709 
 2014   286.41 
 2015  286.492 
 2016  286.685 
 2017  286.791 
 2018  286.729 
 2019  286.647 
 2020  286.669 
 2021  286.689 
 2022  286.833 
 2023  286.784 
 2024    286.8 
 2025   286.83 
 2026  286.856 
 2027  286.878 
 2028  286.721 
 2029  286.796 
 2030  286.736 
 2031  286.877 
 2032  286.791 
 2033  286.805 
 2034  286.628 
 2035  286.839 
 2036  286.876 
 2037  286.742 
 2038  286.688 
 2039  286.741 
 2040  286.652 
 2041  286.761 
 2042  286.821 
 2043  286.803 
 2044  286.728 
 2045  286.654 
 2046  286.663 
 2047  286.666 
 2048  286.664 
 2049  286.676 
 2050  286.805 
 2051  286.725 
 2052  286.719 
 2053  286.742 
 2054  286.692 
 2055  286.839 
 2056  286.744 
 2057   286.65 
 2058  286.795 
 2059  286.665 
 2060   286.78 
 2061  286.688 
 2062  286.777 
 2063  286.681 
 2064  286.681 
 2065  286.737 
 2066  286.788 
 2067  286.661 
 2068  286.679 
 2069  286.698 
 2070  286.731 
 2071  286.801 
 2072  286.721 
 2073  286.666 
 2074    286.8 
 2075  286.872 
 2076  286.651 
 2077  286.614 
 2078  286.658 
 2079  286.794 
 2080  286.816 
 2081  286.716 
 2082  286.609 
 2083  286.548 
 2084  286.614 
 2085  286.649 
 2086  286.671 
 2087  286.703 
 2088   286.77 
 2089  286.759 
 2090  286.811 
 2091  286.811 
 2092  286.779 
 2093  286.846 
 2094  286.918 
 2095  286.814 
 2096  286.763 
 2097  286.577 
 2098  286.649 
 2099  286.706 
 2100  286.705 
